SPECTRUM DATA FILE
SpectrumCount:	1
PixelCount:	2500
UserName:	diederichbenedict
SampleName:	
LightSource:	
Comments:	
DeviceName:	S_mini
DeviceManufacturer:	Laser 2000
DeviceSerialNo:	20061

Name:	last spectrum
Date:	2020-03-12T14:06:26.7133611+01:00
ExposureTime:	0.1
TemporalAvg:	5
IntensityUnit:	nW/nm
CCDLoadLevel:	1.109239
Temperature:	25.15433
DiagramColor:	200

Wavelength [nm]	Intensity1
201.6614	0.002351002
202.0036	0.003531389
202.3458	-0.003611853
202.688	-0.0009622317
203.0302	-0.0009088055
203.3724	-0.006356546
203.7146	-0.008558184
204.0568	0.0006461079
204.399	-0.007651133
204.7411	0.002348556
205.0833	-0.008416963
205.4254	-0.00352652
205.7675	-0.00154335
206.1097	0.004880901
206.4518	-0.004252598
206.7939	0.0009856506
207.136	-0.01237622
207.4781	-0.002236501
207.8201	-0.003943438
208.1622	0.001302027
208.5043	-0.003415115
208.8463	0.004282539
209.1884	-0.007027337
209.5304	-0.01034509
209.8725	-0.004826475
210.2145	-0.0009844019
210.5565	-0.004520965
210.8985	0.003068572
211.2405	0.003501632
211.5825	-0.0003418588
211.9244	0.0004707254
212.2664	0.001483697
212.6084	-0.009379209
212.9503	-0.0001781691
213.2922	-0.007926909
213.6342	0.002195435
213.9761	0.003841743
214.318	0.003021693
214.6599	0.001787205
215.0018	-0.002356299
215.3437	-0.000935854
215.6856	0.003360148
216.0275	0.002114793
216.3693	-0.003154281
216.7112	-0.0002720963
217.053	-0.00539556
217.3948	-0.003516604
217.7367	0.00204179
218.0785	0.002909147
218.4203	-0.000626609
218.7621	0.002448232
219.1039	0.003319073
219.4456	-0.001275895
219.7874	8.16585E-06
220.1292	-0.0007115058
220.4709	0.001405267
220.8127	0.003670096
221.1544	0.001108582
221.4962	0.001719047
221.8379	-0.0003072841
222.1796	0.0008965404
222.5213	0.0004588933
222.863	6.343577E-05
223.2047	-0.001484462
223.5463	0.0003401453
223.888	0.001638144
224.2297	0.001453844
224.5713	0.004277171
224.9129	0.001844459
225.2546	-0.0001927123
225.5962	0.0008198916
225.9378	0.000597265
226.2794	0.0004245762
226.621	-0.001070331
226.9626	-0.003525932
227.3042	-0.001020022
227.6458	-0.001929223
227.9873	0.0009068208
228.3289	-0.0009027502
228.6704	0.00210198
229.0119	0.001422251
229.3535	0.003200109
229.695	0.001586155
230.0365	0.0003310178
230.378	-0.001182111
230.7195	-0.001904167
231.0609	-0.001208705
231.4024	0.001442965
231.7439	-0.0005793459
232.0853	0.001694546
232.4268	0.0008241562
232.7682	-0.001537326
233.1096	-0.001214422
233.451	0.001621946
233.7924	-0.0009143322
234.1339	-0.0006663335
234.4752	7.335407E-05
234.8166	0.0008665293
235.158	0.0003272336
235.4994	-0.0003547605
235.8407	-0.0008265286
236.1821	-0.0005789071
236.5234	-0.0006729563
236.8647	-0.001520538
237.206	-0.001063651
237.5473	2.545408E-05
237.8886	-0.0008608499
238.2299	-0.0003215516
238.5712	0.0005381404
238.9125	0.0008446688
239.2538	-0.0005118927
239.595	0.0007859709
239.9362	-0.0005622944
240.2775	-0.001363053
240.6187	0.001370889
240.9599	0.0006568522
241.3011	0.0004779882
241.6423	-0.001044738
241.9835	0.0008260414
242.3247	5.994946E-05
242.6659	-0.001016093
243.007	-0.0001064835
243.3482	-0.001215779
243.6893	-0.0006608092
244.0305	0.0006619955
244.3716	-0.0004365821
244.7127	-0.001161691
245.0538	0.0004798256
245.3949	0.001029251
245.736	-0.0005044031
246.0771	-0.001311345
246.4182	-0.0001262358
246.7592	0.0001883411
247.1003	7.243938E-05
247.4414	-0.0004178478
247.7824	0.0009652529
248.1234	-0.001615793
248.4644	0.0003606345
248.8055	-0.0005572221
249.1465	0.000526625
249.4874	0.0003402995
249.8284	0.0001696123
250.1694	-0.0006913742
250.5104	-9.236386E-05
250.8513	-9.013677E-05
251.1923	-0.000916613
251.5332	0.001097633
251.8741	0.00108121
252.215	0.0007990493
252.556	-0.001207967
252.8969	-0.001198328
253.2377	-0.0008798167
253.5786	-0.0007693429
253.9195	0.0006915526
254.2604	-0.0009591144
254.6012	0.001245013
254.9421	0.0002095864
255.2829	-0.001471248
255.6237	-0.0003547759
255.9645	0.0002681001
256.3053	-0.0005016195
256.6461	0.0009224484
256.9869	-0.001787816
257.3277	5.116703E-05
257.6685	0.00119969
258.0092	0.0003106392
258.35	-0.001211449
258.6907	0.0003376646
259.0315	0.0005283
259.3722	-7.397671E-05
259.7129	-0.0004693126
260.0536	0.0002525663
260.3943	-0.0001929175
260.735	-0.0004105632
261.0757	-0.0003897138
261.4164	0.0007589677
261.757	0.0005688192
262.0977	0.0004865439
262.4383	-0.001528041
262.779	0.001214466
263.1196	-0.0003691234
263.4602	0.0006609251
263.8008	0.0001403884
264.1414	0.000839481
264.482	-3.462327E-05
264.8225	0.0004909215
265.1631	-0.000554496
265.5037	0.00064704
265.8442	-0.0006876281
266.1848	-0.0007028662
266.5253	-0.0004581611
266.8658	0.001082991
267.2063	-0.0006695623
267.5468	0.0001928372
267.8873	0.0002604134
268.2278	-0.0007259649
268.5683	-0.001305924
268.9088	0.000656181
269.2492	-0.001619696
269.5897	5.685315E-05
269.9301	-0.001343465
270.2705	0.0001649133
270.611	-0.0007550402
270.9514	-0.0001055056
271.2917	-0.0003269549
271.6321	-0.0001286656
271.9725	0.0001456703
272.3129	-0.0003248448
272.6533	9.40137E-05
272.9936	0.0007112009
273.334	-0.000125161
273.6743	-7.88262E-05
274.0146	-0.0002074874
274.3549	0.000171149
274.6953	0.0007224293
275.0356	0.001329305
275.3759	-0.0001793955
275.7161	-0.0009695436
276.0564	-0.0007573821
276.3966	-0.0007218153
276.7369	0.001204174
277.0771	-0.0006434797
277.4174	-0.0005645235
277.7576	-0.0004939788
278.0978	-0.0002491953
278.438	-0.0001811076
278.7782	0.0009342824
279.1184	-0.0006131667
279.4586	0.0008301403
279.7987	-0.0004065543
280.1389	0.00118064
280.479	-5.580802E-05
280.8192	-0.0004358211
281.1593	0.00017218
281.4994	0.0009520365
281.8395	0.001405245
282.1796	8.132797E-05
282.5197	0.001214796
282.8598	0.000679786
283.1999	-0.000136801
283.5399	0.0005298234
283.88	-0.0002661981
284.2201	6.224647E-06
284.5601	0.0001531819
284.9001	0.0004328299
285.2401	0.0004112099
285.5801	-0.000546718
285.9201	-0.000576189
286.2601	-7.362464E-05
286.6001	-0.0004726083
286.9401	0.0002957463
287.28	-0.001322157
287.62	-0.0005490174
287.9599	-0.0001772435
288.2998	-0.0003362295
288.6398	0.0002374336
288.9797	0.0002754252
289.3196	-6.023822E-05
289.6595	-0.0006382498
289.9994	-0.0003070236
290.3392	-0.0005193953
290.6791	-0.0004528922
291.019	0.0005981654
291.3588	-0.0001911327
291.6986	0.0003258162
292.0385	0.0007160712
292.3783	-0.0001971226
292.7181	-0.0001377613
293.0579	-0.0006571894
293.3976	-0.0005964321
293.7374	-0.000326992
294.0772	0.0002022708
294.417	-0.0002957513
294.7567	-0.0004227969
295.0964	-0.0005447957
295.4362	0.0001015933
295.7759	-9.90624E-05
296.1156	-0.0007929496
296.4553	-0.000187681
296.795	0.0005144104
297.1347	2.922266E-05
297.4744	-0.0008025203
297.814	0.000169879
298.1537	0.0002534936
298.4933	1.545978E-05
298.8329	5.188123E-05
299.1726	-0.0007699783
299.5122	-5.937436E-05
299.8518	-0.0006299452
300.1914	0.0001310168
300.531	-0.0005086008
300.8706	-7.891665E-05
301.2101	0.0005409846
301.5497	-2.275695E-05
301.8892	-0.0002848748
302.2288	-0.001135214
302.5683	-0.0003187415
302.9078	-0.0002018698
303.2473	0.0003238673
303.5868	5.642809E-05
303.9263	-0.000155479
304.2658	-0.0004344006
304.6053	-0.000626551
304.9447	0.0005037992
305.2842	0.0007065219
305.6236	-0.0007747623
305.9631	-5.833209E-05
306.3025	-0.0001679977
306.6419	-0.0003928366
306.9813	-0.0003004407
307.3207	1.816441E-05
307.6601	6.3186E-05
307.9995	-0.000739622
308.3388	3.313888E-05
308.6782	-0.0002403201
309.0175	0.000677579
309.3568	0.0002954721
309.6962	6.442143E-05
310.0355	-6.847609E-05
310.3748	-0.0001423445
310.7141	9.599447E-05
311.0534	-0.0001287301
311.3927	-0.000212128
311.7319	-0.0002843633
312.0712	5.151517E-05
312.4104	-0.0001174242
312.7497	-0.0002666795
313.0889	0.0002229591
313.4281	-0.0002240511
313.7673	9.243845E-05
314.1065	7.518716E-05
314.4457	-0.0004829949
314.7849	-0.0002682339
315.1241	0.000226431
315.4632	0.0004876126
315.8024	-9.127278E-05
316.1415	0.000287984
316.4807	0.000316086
316.8198	-5.313667E-06
317.1589	0.0006369677
317.498	-0.0005800938
317.8371	0.0005978863
318.1762	0.0004984142
318.5153	-7.832876E-05
318.8543	0.000413464
319.1934	0.0003928228
319.5324	0.0005511629
319.8714	-9.350394E-05
320.2105	0.0001552934
320.5495	0.0004406585
320.8885	0.0009003748
321.2275	0.0002705681
321.5665	-0.0001658412
321.9054	0.0002382479
322.2444	0.0002425059
322.5834	0.000191929
322.9223	-0.000411942
323.2612	-0.0005216549
323.6002	-0.0003507033
323.9391	0.0004512916
324.278	0.0003628916
324.6169	0.001057724
324.9558	0.0004346658
325.2946	0.0002843777
325.6335	-0.000194403
325.9724	-0.0005372009
326.3112	-0.0003708629
326.6501	-0.0004132264
326.9889	-0.0006876514
327.3277	0.0001036714
327.6665	-0.0003496615
328.0053	-0.0002798959
328.3441	-0.0001918469
328.6829	7.483552E-05
329.0216	-0.0003287292
329.3604	0.0002480094
329.6992	0.0001386339
330.0379	0.0008216976
330.3766	-0.000206813
330.7153	-0.0003961746
331.054	-0.0004482205
331.3927	0.0004539766
331.7314	0.000376384
332.0701	9.646666E-05
332.4088	7.902704E-05
332.7474	0.0001779663
333.0861	0.0002147476
333.4247	-0.0001409461
333.7634	-0.0002360378
334.102	0.0003524821
334.4406	2.35997E-06
334.7792	-0.0001960275
335.1178	0.0004751632
335.4564	0.0003062107
335.7949	-0.000438834
336.1335	0.0003143788
336.472	0.0002314729
336.8106	0.0007728501
337.1491	0.000714376
337.4876	0.0005083745
337.8261	-0.0002945703
338.1646	-2.324337E-05
338.5031	0.0002557195
338.8416	-0.0005410184
339.1801	0.0001419017
339.5186	-0.0002348529
339.857	-0.0005933733
340.1954	0.0003404269
340.5339	0.0007483154
340.8723	-0.0005563916
341.2107	-0.0003839827
341.5491	0.0001717924
341.8875	-0.0002529929
342.2259	-6.979699E-06
342.5642	0.000286439
342.9026	0.0003028729
343.241	-5.183306E-05
343.5793	0.0001184198
343.9176	3.935799E-05
344.256	0.0006394378
344.5943	0.0001233704
344.9326	0.0004262117
345.2708	4.603318E-05
345.6091	-0.0001581963
345.9474	4.857276E-05
346.2856	-0.0002348407
346.6239	0.0001014426
346.9622	0.0001901402
347.3004	0.0001266464
347.6386	0.0004324661
347.9768	-0.0004056072
348.315	0.0001682966
348.6532	0.0002148226
348.9914	0.0002462425
349.3296	-0.0003889425
349.6677	-0.000238293
350.0059	0.0003009414
350.344	-1.36507E-05
350.6821	-0.0002980881
351.0203	-0.0001547182
351.3584	0.000218623
351.6965	0.0006914732
352.0345	0.0005772551
352.3726	-0.000505067
352.7107	2.100095E-05
353.0488	-0.0007170038
353.3868	0.0001407102
353.7249	-0.0006636141
354.0629	-5.900869E-05
354.4009	-0.0003986837
354.7389	0.0003128748
355.0769	9.98828E-05
355.4149	5.323024E-05
355.7529	0.000380404
356.0908	0.0001610026
356.4288	0.0007821694
356.7667	2.163078E-05
357.1047	8.732481E-05
357.4426	-0.0002374259
357.7805	2.178138E-05
358.1184	0.000360755
358.4563	0.0003059971
358.7942	6.670865E-05
359.1321	0.0002900991
359.4699	-4.826493E-05
359.8078	0.0002651226
360.1457	-7.713347E-05
360.4835	0.0004916628
360.8213	-0.0008185521
361.1591	0.0001697053
361.4969	-0.0004433226
361.8347	-0.000644682
362.1725	9.697538E-07
362.5103	-0.0002842802
362.8481	-0.000215053
363.1858	0.0001204436
363.5236	-0.000649447
363.8613	0.000544454
364.199	0.0005503243
364.5367	0.0002331018
364.8744	9.2157E-05
365.2121	8.36959E-05
365.5498	3.599061E-05
365.8875	0.0004961503
366.2251	-0.0001147303
366.5628	-0.0002393137
366.9004	2.412533E-05
367.2381	-0.000362251
367.5757	0.000190493
367.9133	-0.0001655414
368.2509	-6.344526E-05
368.5885	-0.000422741
368.9261	3.434512E-05
369.2636	-2.527086E-05
369.6012	0.000243175
369.9388	-0.0001054965
370.2763	0.0003643184
370.6138	0.0008538333
370.9513	-0.0006431718
371.2888	-0.0004423404
371.6263	-0.0002714929
371.9638	-0.0005188059
372.3013	0.0002320317
372.6388	-0.0002608926
372.9762	0.0002549204
373.3137	-1.298098E-06
373.6511	-0.0001666478
373.9885	-0.0005449893
374.326	-0.0002220811
374.6634	-0.0003337407
375.0008	-0.0004242288
375.3381	0.0001312114
375.6755	-0.000361921
376.0129	-1.995527E-05
376.3502	-0.0001797612
376.6876	-0.0006986249
377.0249	-0.0002614709
377.3622	7.94439E-05
377.6996	-0.0001387237
378.0368	-0.0002347754
378.3741	0.000364469
378.7114	0.0002226819
379.0487	0.0005603253
379.386	0.0004296954
379.7232	0.000425597
380.0605	0.0002435262
380.3977	-0.0001683568
380.7349	-0.0001841922
381.0721	0.0003480711
381.4093	0.0002329781
381.7465	0.0002301774
382.0837	-9.079282E-05
382.4208	0.0002858693
382.758	0.00017559
383.0951	0.0004740929
383.4323	-0.0002102833
383.7694	-0.0005054121
384.1065	0.0001406293
384.4436	-0.0001405764
384.7807	-2.192268E-05
385.1178	1.242624E-05
385.4549	0.0002042991
385.7919	0.0002618159
386.129	-0.0004383924
386.466	-9.07837E-05
386.8031	6.870626E-05
387.1401	-0.0001041664
387.4771	-0.0003036216
387.8141	0.0001426702
388.1511	-0.0002984591
388.4881	0.000234413
388.825	2.712825E-05
389.162	7.679904E-05
389.4989	0.0001748338
389.8359	-1.099333E-05
390.1728	0.0002391576
390.5097	-0.000376699
390.8466	-0.0003903808
391.1835	-0.0001246225
391.5204	0.0001066179
391.8573	4.337626E-05
392.1942	-7.004711E-05
392.531	0.0001261385
392.8679	0.0004471191
393.2047	-0.0002765466
393.5415	-3.941385E-05
393.8783	0.0001873436
394.2151	0.0003710612
394.5519	-0.0001416337
394.8887	-1.488323E-05
395.2255	0.0002491513
395.5622	0.0003101171
395.899	3.39188E-05
396.2357	-0.0001568113
396.5724	-0.00037975
396.9091	0.0002515874
397.2459	-0.0003888937
397.5826	0.0002511622
397.9193	-1.476743E-05
398.2559	0.000297264
398.5926	0.0001039085
398.9293	-0.0005294458
399.2659	-6.570638E-06
399.6025	1.177E-05
399.9391	-0.0001939207
400.2758	0.000398333
400.6124	0.0005939627
400.9489	0.0005046459
401.2855	0.0002235046
401.6221	-0.0002846903
401.9587	5.13752E-05
402.2952	2.556855E-05
402.6317	8.671018E-05
402.9683	0.0001968367
403.3048	-9.133136E-05
403.6413	-0.0001001618
403.9778	0.0002835138
404.3143	-8.925096E-05
404.6508	-6.515074E-05
404.9872	3.96896E-05
405.3237	-5.424699E-05
405.6601	0.0001583576
405.9966	-0.0003172268
406.333	8.79034E-05
406.6694	-8.143787E-05
407.0058	-0.0003921105
407.3422	-0.0001277804
407.6786	8.782151E-05
408.0149	0.0002149409
408.3513	0.0001471821
408.6876	0.0001083764
409.024	-8.724107E-05
409.3603	-0.0002956707
409.6966	0.0002375945
410.0329	-0.0001841493
410.3692	-8.615278E-05
410.7055	0.000375383
411.0418	0.0002794875
411.378	0.0001314798
411.7143	-5.9368E-05
412.0505	-1.609644E-06
412.3867	-0.0001414924
412.723	-7.13476E-05
413.0592	9.759952E-05
413.3954	1.115658E-05
413.7316	0.0001041087
414.0677	0.0001238425
414.4039	0.000242724
414.7401	6.528245E-05
415.0762	-5.954157E-05
415.4124	5.95541E-05
415.7485	0.0002718412
416.0846	4.359824E-05
416.4207	2.820525E-05
416.7568	-0.0002176438
417.0929	0.0001765483
417.4289	-0.0003177784
417.765	-7.343404E-05
418.101	0.000281155
418.4371	-4.353759E-05
418.7731	0.00030134
419.1091	-8.161371E-05
419.4451	0.0002968998
419.7811	0.0003216298
420.1171	0.0002034748
420.4531	4.014189E-05
420.789	-0.0002940284
421.125	-5.96577E-05
421.4609	-8.66794E-05
421.7968	-7.899531E-05
422.1328	-8.893626E-05
422.4687	-0.0003765654
422.8046	-0.0002546705
423.1405	0.0001084481
423.4763	-1.634564E-05
423.8122	0.0002067168
424.1481	0.000367726
424.4839	6.906391E-05
424.8197	-0.0001588706
425.1555	0.000317512
425.4914	0.000200205
425.8272	0.0002553303
426.163	0.0002444459
426.4987	-3.592527E-05
426.8345	2.326265E-05
427.1703	1.304514E-05
427.506	-6.360869E-06
427.8417	-0.0001520189
428.1775	-0.0001784669
428.5132	0.000372048
428.8489	0.0002156885
429.1846	0.0003386076
429.5203	5.730845E-05
429.8559	0.0002100677
430.1916	-0.0001524437
430.5273	-4.390169E-05
430.8629	-6.320369E-05
431.1985	-0.000228039
431.5341	-8.399779E-05
431.8697	0.0005925669
432.2053	-0.0001004883
432.5409	-0.0001410501
432.8765	1.904922E-05
433.212	0.0001956799
433.5476	0.0002160519
433.8831	8.934434E-05
434.2187	3.640051E-05
434.5542	0.0001315374
434.8897	0.0002980751
435.2252	0.0002363366
435.5607	0.0004030162
435.8961	-4.798209E-05
436.2316	-7.314597E-05
436.5671	0.0002189627
436.9025	-2.710402E-05
437.2379	6.802669E-05
437.5734	0.0002790234
437.9088	1.759064E-05
438.2442	-0.0001581647
438.5796	2.287582E-05
438.9149	8.68982E-05
439.2503	0.0001202824
439.5857	0.0002164162
439.921	0.0003255052
440.2563	-0.000154016
440.5916	0.0002626956
440.927	8.714598E-05
441.2623	-2.30671E-05
441.5976	8.988723E-05
441.9328	0.0001398879
442.2681	-0.0002160881
442.6034	-1.369941E-05
442.9386	0.0002584334
443.2738	0.0002271913
443.6091	8.62124E-05
443.9443	8.067097E-05
444.2795	0.0001409303
444.6147	-0.0004001916
444.9498	-0.0004180028
445.285	-0.0003107912
445.6202	4.262642E-05
445.9553	8.976626E-05
446.2904	-0.0003340018
446.6256	-0.0002154703
446.9607	4.763986E-05
447.2958	0.0004086169
447.6309	-0.0001032297
447.966	-4.071995E-05
448.301	-8.928013E-05
448.6361	0.0003375558
448.9711	5.2593E-05
449.3062	-0.0001283205
449.6412	0.0004326164
449.9762	-0.000152466
450.3112	-0.0002676443
450.6462	5.83532E-05
450.9812	9.490951E-06
451.3162	-0.0001992626
451.6511	-0.0004218277
451.9861	0.000265175
452.321	0.0001611995
452.6559	0.0003293948
452.9908	-0.0004622138
453.3257	0.0001001847
453.6606	-0.0001910126
453.9955	2.887593E-05
454.3304	0.000135115
454.6653	5.02362E-05
455.0001	0.0002265544
455.3349	8.62442E-05
455.6698	0.0001421479
456.0046	5.968708E-05
456.3394	-5.047261E-05
456.6742	8.875859E-05
457.009	2.459428E-05
457.3437	-0.0002691892
457.6785	-7.154184E-05
458.0132	0.0003737315
458.348	0.0003465182
458.6827	0.0001021019
459.0174	0.000129444
459.3521	0.0002301877
459.6868	0.000369933
460.0215	8.225854E-05
460.3562	0.0002205202
460.6908	-0.0002062921
461.0255	-0.0005054327
461.3601	-9.78223E-05
461.6947	-0.0001726541
462.0294	0.000245926
462.364	-0.0002478351
462.6985	-7.984831E-05
463.0331	0.0001336408
463.3677	8.282829E-05
463.7023	-4.848432E-05
464.0368	0.0006118777
464.3713	-0.0001118438
464.7059	6.127394E-05
465.0404	0.0001810171
465.3749	0.0002463837
465.7094	7.537855E-05
466.0439	-3.976705E-05
466.3783	-0.0001138721
466.7128	0.0001163961
467.0472	9.384659E-05
467.3817	-6.102441E-05
467.7161	-0.000264791
468.0505	4.713903E-05
468.3849	-3.948284E-05
468.7193	-9.831359E-05
469.0537	-9.808626E-05
469.3881	-0.000128374
469.7224	8.067316E-05
470.0568	0.0002195967
470.3911	-5.501899E-05
470.7254	-5.373407E-05
471.0597	1.229172E-05
471.394	3.895721E-05
471.7283	-6.748945E-05
472.0626	-0.0001885324
472.3969	-2.827134E-05
472.7311	0.0002426254
473.0654	5.260491E-07
473.3996	-0.0001416227
473.7338	3.558679E-05
474.0681	-0.0001975853
474.4023	0.0002862392
474.7364	0.000205207
475.0706	0.0003736988
475.4048	-0.000115612
475.7389	2.779928E-05
476.0731	0.0001979588
476.4072	-0.0003271298
476.7413	0.000121356
477.0754	-4.492927E-05
477.4095	-0.0001399591
477.7436	-8.665265E-05
478.0777	-0.0001193885
478.4118	5.780194E-06
478.7458	0.0001278586
479.0799	-0.0001256634
479.4139	-0.0001083917
479.7479	-0.0001833324
480.0819	5.755832E-05
480.4159	-2.28578E-05
480.7499	-3.096339E-05
481.0839	0.0001916014
481.4178	-0.0002339283
481.7518	4.11683E-05
482.0857	2.875583E-05
482.4196	8.620614E-05
482.7536	-0.0001842418
483.0875	-2.948836E-05
483.4214	-0.0003126527
483.7552	1.911204E-05
484.0891	8.38525E-05
484.423	8.850313E-05
484.7568	-0.0001869079
485.0907	-0.000100211
485.4245	1.55034E-05
485.7583	0.0001888461
486.0921	0.0001092433
486.4259	0.0001103562
486.7597	0.000157248
487.0935	-0.0002068537
487.4272	6.724656E-05
487.761	2.220807E-05
